# Converted from NIST Webbook 156-59-2-IR.jdx
# cm-1, transmittance
391, 0.850
392, 0.850
393, 0.849
394, 0.849
395, 0.849
396, 0.849
397, 0.848
398, 0.848
399, 0.848
400, 0.847
401, 0.847
402, 0.847
403, 0.846
404, 0.846
405, 0.846
406, 0.845
407, 0.845
408, 0.845
409, 0.845
410, 0.845
411, 0.845
412, 0.844
413, 0.844
414, 0.844
415, 0.844
416, 0.844
417, 0.844
418, 0.844
419, 0.843
420, 0.843
421, 0.843
422, 0.843
423, 0.843
424, 0.843
425, 0.843
426, 0.843
427, 0.843
428, 0.843
429, 0.843
430, 0.843
431, 0.843
432, 0.843
433, 0.843
434, 0.843
435, 0.843
436, 0.843
437, 0.843
438, 0.844
439, 0.844
440, 0.844
441, 0.844
442, 0.844
443, 0.844
444, 0.844
445, 0.844
446, 0.844
447, 0.844
448, 0.844
449, 0.844
450, 0.844
451, 0.844
452, 0.844
453, 0.844
454, 0.844
455, 0.844
456, 0.844
457, 0.844
458, 0.844
459, 0.844
460, 0.844
461, 0.844
462, 0.844
463, 0.845
464, 0.845
465, 0.845
466, 0.845
467, 0.845
468, 0.844
469, 0.844
470, 0.844
471, 0.844
472, 0.842
473, 0.844
474, 0.844
475, 0.844
476, 0.844
477, 0.844
478, 0.844
479, 0.844
480, 0.844
481, 0.843
482, 0.843
483, 0.843
484, 0.842
485, 0.842
486, 0.842
487, 0.841
488, 0.841
489, 0.841
490, 0.840
491, 0.840
492, 0.839
493, 0.838
494, 0.838
495, 0.837
496, 0.837
497, 0.836
498, 0.836
499, 0.835
500, 0.834
501, 0.834
502, 0.834
503, 0.833
504, 0.833
505, 0.832
506, 0.832
507, 0.831
508, 0.831
509, 0.830
510, 0.830
511, 0.829
512, 0.829
513, 0.829
514, 0.828
515, 0.828
516, 0.828
517, 0.827
518, 0.827
519, 0.827
520, 0.826
521, 0.826
522, 0.826
523, 0.825
524, 0.825
525, 0.825
526, 0.825
527, 0.824
528, 0.824
529, 0.824
530, 0.824
531, 0.824
532, 0.824
533, 0.823
534, 0.823
535, 0.823
536, 0.823
537, 0.823
538, 0.823
539, 0.823
540, 0.823
541, 0.823
542, 0.822
543, 0.821
544, 0.821
545, 0.820
546, 0.819
547, 0.817
548, 0.816
549, 0.814
550, 0.812
551, 0.808
552, 0.800
553, 0.792
554, 0.784
555, 0.776
556, 0.766
557, 0.755
558, 0.739
559, 0.717
560, 0.650
561, 0.574
562, 0.498
563, 0.466
564, 0.464
565, 0.464
566, 0.466
567, 0.475
568, 0.490
569, 0.504
570, 0.519
571, 0.525
572, 0.506
573, 0.452
574, 0.453
575, 0.496
576, 0.560
577, 0.534
578, 0.493
579, 0.453
580, 0.447
581, 0.448
582, 0.505
583, 0.555
584, 0.604
585, 0.653
586, 0.703
587, 0.752
588, 0.783
589, 0.798
590, 0.811
591, 0.825
592, 0.831
593, 0.835
594, 0.837
595, 0.838
596, 0.839
597, 0.839
598, 0.840
599, 0.840
600, 0.840
601, 0.840
602, 0.840
603, 0.841
604, 0.841
605, 0.841
606, 0.841
607, 0.842
608, 0.842
609, 0.842
610, 0.843
611, 0.843
612, 0.844
613, 0.844
614, 0.845
615, 0.845
616, 0.845
617, 0.846
618, 0.847
619, 0.848
620, 0.849
621, 0.850
622, 0.851
623, 0.851
624, 0.852
625, 0.853
626, 0.852
627, 0.854
628, 0.855
629, 0.855
630, 0.856
631, 0.857
632, 0.857
633, 0.858
634, 0.858
635, 0.859
636, 0.859
637, 0.859
638, 0.859
639, 0.859
640, 0.859
641, 0.858
642, 0.858
643, 0.857
644, 0.855
645, 0.852
646, 0.849
647, 0.845
648, 0.840
649, 0.835
650, 0.831
651, 0.824
652, 0.817
653, 0.810
654, 0.804
655, 0.795
656, 0.786
657, 0.777
658, 0.767
659, 0.757
660, 0.747
661, 0.732
662, 0.713
663, 0.636
664, 0.619
665, 0.601
666, 0.571
667, 0.477
668, 0.384
669, 0.329
670, 0.302
671, 0.276
672, 0.249
673, 0.220
674, 0.200
675, 0.181
676, 0.165
677, 0.151
678, 0.142
679, 0.132
680, 0.123
681, 0.112
682, 0.099
683, 0.092
684, 0.090
685, 0.087
686, 0.088
687, 0.088
688, 0.089
689, 0.089
690, 0.090
691, 0.090
692, 0.091
693, 0.086
694, 0.082
695, 0.068
696, 0.049
697, 0.029
698, 0.010
699, 0.001
700, 0.009
701, 0.081
702, 0.081
703, 0.079
704, 0.071
705, 0.063
706, 0.061
707, 0.061
708, 0.061
709, 0.061
710, 0.063
711, 0.065
712, 0.067
713, 0.070
714, 0.073
715, 0.082
716, 0.094
717, 0.106
718, 0.119
719, 0.131
720, 0.143
721, 0.155
722, 0.168
723, 0.180
724, 0.181
725, 0.181
726, 0.180
727, 0.176
728, 0.171
729, 0.166
730, 0.162
731, 0.161
732, 0.165
733, 0.193
734, 0.220
735, 0.248
736, 0.276
737, 0.303
738, 0.331
739, 0.359
740, 0.390
741, 0.412
742, 0.425
743, 0.438
744, 0.451
745, 0.463
746, 0.476
747, 0.489
748, 0.502
749, 0.516
750, 0.537
751, 0.559
752, 0.591
753, 0.619
754, 0.654
755, 0.707
756, 0.736
757, 0.759
758, 0.775
759, 0.790
760, 0.806
761, 0.823
762, 0.839
763, 0.854
764, 0.871
765, 0.885
766, 0.890
767, 0.894
768, 0.898
769, 0.901
770, 0.904
771, 0.907
772, 0.909
773, 0.911
774, 0.913
775, 0.915
776, 0.916
777, 0.917
778, 0.918
779, 0.918
780, 0.919
781, 0.919
782, 0.919
783, 0.918
784, 0.919
785, 0.919
786, 0.918
787, 0.918
788, 0.918
789, 0.917
790, 0.917
791, 0.916
792, 0.915
793, 0.914
794, 0.913
795, 0.911
796, 0.909
797, 0.907
798, 0.904
799, 0.902
800, 0.899
801, 0.895
802, 0.891
803, 0.887
804, 0.883
805, 0.878
806, 0.873
807, 0.867
808, 0.862
809, 0.856
810, 0.849
811, 0.841
812, 0.833
813, 0.824
814, 0.816
815, 0.807
816, 0.799
817, 0.770
818, 0.735
819, 0.699
820, 0.663
821, 0.628
822, 0.596
823, 0.592
824, 0.593
825, 0.594
826, 0.595
827, 0.599
828, 0.606
829, 0.608
830, 0.609
831, 0.609
832, 0.608
833, 0.590
834, 0.573
835, 0.566
836, 0.562
837, 0.566
838, 0.574
839, 0.577
840, 0.576
841, 0.529
842, 0.456
843, 0.383
844, 0.306
845, 0.253
846, 0.200
847, 0.147
848, 0.094
849, 0.017
850, 0.006
851, 0.004
852, 0.004
853, 0.004
854, 0.004
855, 0.003
856, 0.003
857, 0.003
858, 0.003
859, 0.003
860, 0.002
861, 0.004
862, 0.004
863, 0.004
864, 0.004
865, 0.004
866, 0.004
867, 0.005
868, 0.006
869, 0.007
870, 0.009
871, 0.059
872, 0.140
873, 0.221
874, 0.302
875, 0.384
876, 0.465
877, 0.546
878, 0.627
879, 0.709
880, 0.790
881, 0.800
882, 0.823
883, 0.833
884, 0.839
885, 0.841
886, 0.842
887, 0.843
888, 0.844
889, 0.844
890, 0.844
891, 0.844
892, 0.844
893, 0.844
894, 0.843
895, 0.843
896, 0.841
897, 0.840
898, 0.838
899, 0.827
900, 0.805
901, 0.793
902, 0.792
903, 0.812
904, 0.851
905, 0.853
906, 0.853
907, 0.853
908, 0.853
909, 0.852
910, 0.851
911, 0.851
912, 0.850
913, 0.850
914, 0.849
915, 0.848
916, 0.849
917, 0.849
918, 0.850
919, 0.851
920, 0.852
921, 0.853
922, 0.854
923, 0.855
924, 0.857
925, 0.858
926, 0.860
927, 0.861
928, 0.863
929, 0.865
930, 0.866
931, 0.868
932, 0.869
933, 0.870
934, 0.871
935, 0.872
936, 0.873
937, 0.874
938, 0.874
939, 0.875
940, 0.876
941, 0.877
942, 0.878
943, 0.879
944, 0.880
945, 0.881
946, 0.882
947, 0.883
948, 0.884
949, 0.884
950, 0.885
951, 0.886
952, 0.886
953, 0.887
954, 0.887
955, 0.887
956, 0.887
957, 0.887
958, 0.887
959, 0.887
960, 0.887
961, 0.887
962, 0.887
963, 0.887
964, 0.887
965, 0.887
966, 0.886
967, 0.886
968, 0.885
969, 0.885
970, 0.884
971, 0.884
972, 0.883
973, 0.883
974, 0.882
975, 0.882
976, 0.882
977, 0.881
978, 0.881
979, 0.881
980, 0.880
981, 0.880
982, 0.880
983, 0.879
984, 0.879
985, 0.879
986, 0.878
987, 0.878
988, 0.878
989, 0.878
990, 0.877
991, 0.877
992, 0.877
993, 0.877
994, 0.877
995, 0.877
996, 0.876
997, 0.876
998, 0.876
999, 0.876
1000, 0.876
1001, 0.875
1002, 0.875
1003, 0.875
1004, 0.875
1005, 0.875
1006, 0.875
1007, 0.874
1008, 0.874
1009, 0.874
1010, 0.873
1011, 0.873
1012, 0.872
1013, 0.872
1014, 0.871
1015, 0.871
1016, 0.871
1017, 0.870
1018, 0.870
1019, 0.870
1020, 0.869
1021, 0.869
1022, 0.869
1023, 0.868
1024, 0.868
1025, 0.868
1026, 0.868
1027, 0.868
1028, 0.868
1029, 0.869
1030, 0.869
1031, 0.869
1032, 0.870
1033, 0.871
1034, 0.871
1035, 0.872
1036, 0.873
1037, 0.875
1038, 0.876
1039, 0.878
1040, 0.879
1041, 0.879
1042, 0.880
1043, 0.881
1044, 0.881
1045, 0.882
1046, 0.882
1047, 0.883
1048, 0.883
1049, 0.883
1050, 0.884
1051, 0.884
1052, 0.884
1053, 0.885
1054, 0.885
1055, 0.884
1056, 0.884
1057, 0.884
1058, 0.881
1059, 0.884
1060, 0.884
1061, 0.884
1062, 0.884
1063, 0.884
1064, 0.884
1065, 0.883
1066, 0.883
1067, 0.883
1068, 0.883
1069, 0.882
1070, 0.882
1071, 0.882
1072, 0.881
1073, 0.881
1074, 0.881
1075, 0.881
1076, 0.880
1077, 0.880
1078, 0.880
1079, 0.879
1080, 0.879
1081, 0.879
1082, 0.878
1083, 0.877
1084, 0.876
1085, 0.875
1086, 0.873
1087, 0.871
1088, 0.869
1089, 0.867
1090, 0.865
1091, 0.864
1092, 0.863
1093, 0.864
1094, 0.864
1095, 0.865
1096, 0.865
1097, 0.865
1098, 0.866
1099, 0.867
1100, 0.867
1101, 0.868
1102, 0.869
1103, 0.869
1104, 0.868
1105, 0.867
1106, 0.866
1107, 0.865
1108, 0.865
1109, 0.865
1110, 0.865
1111, 0.865
1112, 0.866
1113, 0.867
1114, 0.869
1115, 0.871
1116, 0.872
1117, 0.873
1118, 0.873
1119, 0.874
1120, 0.875
1121, 0.875
1122, 0.875
1123, 0.875
1124, 0.875
1125, 0.875
1126, 0.875
1127, 0.875
1128, 0.875
1129, 0.874
1130, 0.874
1131, 0.874
1132, 0.874
1133, 0.874
1134, 0.874
1135, 0.874
1136, 0.874
1137, 0.874
1138, 0.874
1139, 0.874
1140, 0.874
1141, 0.874
1142, 0.874
1143, 0.874
1144, 0.874
1145, 0.874
1146, 0.874
1147, 0.873
1148, 0.873
1149, 0.873
1150, 0.873
1151, 0.873
1152, 0.873
1153, 0.873
1154, 0.873
1155, 0.872
1156, 0.872
1157, 0.872
1158, 0.872
1159, 0.872
1160, 0.872
1161, 0.871
1162, 0.871
1163, 0.871
1164, 0.871
1165, 0.871
1166, 0.870
1167, 0.870
1168, 0.870
1169, 0.869
1170, 0.869
1171, 0.868
1172, 0.868
1173, 0.867
1174, 0.867
1175, 0.866
1176, 0.866
1177, 0.866
1178, 0.865
1179, 0.865
1180, 0.864
1181, 0.864
1182, 0.863
1183, 0.862
1184, 0.861
1185, 0.861
1186, 0.860
1187, 0.859
1188, 0.856
1189, 0.853
1190, 0.850
1191, 0.847
1192, 0.844
1193, 0.841
1194, 0.838
1195, 0.835
1196, 0.830
1197, 0.825
1198, 0.821
1199, 0.821
1200, 0.822
1201, 0.824
1202, 0.827
1203, 0.830
1204, 0.830
1205, 0.833
1206, 0.822
1207, 0.814
1208, 0.813
1209, 0.813
1210, 0.814
1211, 0.817
1212, 0.820
1213, 0.824
1214, 0.829
1215, 0.835
1216, 0.845
1217, 0.851
1218, 0.854
1219, 0.855
1220, 0.856
1221, 0.856
1222, 0.856
1223, 0.856
1224, 0.856
1225, 0.856
1226, 0.856
1227, 0.855
1228, 0.855
1229, 0.855
1230, 0.855
1231, 0.855
1232, 0.855
1233, 0.855
1234, 0.855
1235, 0.855
1236, 0.855
1237, 0.855
1238, 0.855
1239, 0.855
1240, 0.855
1241, 0.855
1242, 0.855
1243, 0.854
1244, 0.854
1245, 0.854
1246, 0.854
1247, 0.854
1248, 0.854
1249, 0.854
1250, 0.854
1251, 0.853
1252, 0.853
1253, 0.852
1254, 0.852
1255, 0.851
1256, 0.851
1257, 0.850
1258, 0.848
1259, 0.845
1260, 0.842
1261, 0.838
1262, 0.835
1263, 0.832
1264, 0.828
1265, 0.824
1266, 0.819
1267, 0.813
1268, 0.806
1269, 0.799
1270, 0.792
1271, 0.785
1272, 0.777
1273, 0.766
1274, 0.755
1275, 0.742
1276, 0.727
1277, 0.712
1278, 0.692
1279, 0.673
1280, 0.661
1281, 0.650
1282, 0.641
1283, 0.636
1284, 0.631
1285, 0.627
1286, 0.625
1287, 0.622
1288, 0.619
1289, 0.614
1290, 0.525
1291, 0.455
1292, 0.452
1293, 0.408
1294, 0.342
1295, 0.275
1296, 0.209
1297, 0.143
1298, 0.101
1299, 0.102
1300, 0.103
1301, 0.131
1302, 0.158
1303, 0.184
1304, 0.209
1305, 0.210
1306, 0.159
1307, 0.126
1308, 0.120
1309, 0.179
1310, 0.240
1311, 0.266
1312, 0.219
1313, 0.111
1314, 0.104
1315, 0.104
1316, 0.151
1317, 0.162
1318, 0.174
1319, 0.260
1320, 0.359
1321, 0.458
1322, 0.558
1323, 0.657
1324, 0.756
1325, 0.821
1326, 0.831
1327, 0.835
1328, 0.837
1329, 0.838
1330, 0.839
1331, 0.840
1332, 0.840
1333, 0.840
1334, 0.840
1335, 0.839
1336, 0.839
1337, 0.839
1338, 0.838
1339, 0.838
1340, 0.837
1341, 0.837
1342, 0.836
1343, 0.835
1344, 0.835
1345, 0.834
1346, 0.833
1347, 0.833
1348, 0.832
1349, 0.831
1350, 0.830
1351, 0.830
1352, 0.829
1353, 0.828
1354, 0.827
1355, 0.826
1356, 0.825
1357, 0.824
1358, 0.823
1359, 0.822
1360, 0.821
1361, 0.821
1362, 0.820
1363, 0.818
1364, 0.817
1365, 0.816
1366, 0.815
1367, 0.813
1368, 0.812
1369, 0.811
1370, 0.809
1371, 0.808
1372, 0.807
1373, 0.805
1374, 0.804
1375, 0.803
1376, 0.801
1377, 0.800
1378, 0.798
1379, 0.797
1380, 0.796
1381, 0.795
1382, 0.795
1383, 0.796
1384, 0.796
1385, 0.796
1386, 0.797
1387, 0.798
1388, 0.799
1389, 0.800
1390, 0.801
1391, 0.802
1392, 0.805
1393, 0.801
1394, 0.799
1395, 0.795
1396, 0.794
1397, 0.794
1398, 0.794
1399, 0.795
1400, 0.796
1401, 0.797
1402, 0.800
1403, 0.803
1404, 0.805
1405, 0.808
1406, 0.811
1407, 0.813
1408, 0.815
1409, 0.817
1410, 0.818
1411, 0.819
1412, 0.820
1413, 0.821
1414, 0.821
1415, 0.822
1416, 0.823
1417, 0.824
1418, 0.824
1419, 0.825
1420, 0.825
1421, 0.825
1422, 0.825
1423, 0.824
1424, 0.824
1425, 0.824
1426, 0.823
1427, 0.825
1428, 0.823
1429, 0.823
1430, 0.822
1431, 0.822
1432, 0.821
1433, 0.821
1434, 0.820
1435, 0.820
1436, 0.819
1437, 0.819
1438, 0.818
1439, 0.817
1440, 0.816
1441, 0.815
1442, 0.814
1443, 0.814
1444, 0.813
1445, 0.812
1446, 0.811
1447, 0.811
1448, 0.810
1449, 0.809
1450, 0.808
1451, 0.807
1452, 0.806
1453, 0.805
1454, 0.803
1455, 0.801
1456, 0.799
1457, 0.796
1458, 0.796
1459, 0.795
1460, 0.795
1461, 0.795
1462, 0.795
1463, 0.793
1464, 0.796
1465, 0.796
1466, 0.796
1467, 0.796
1468, 0.797
1469, 0.798
1470, 0.799
1471, 0.800
1472, 0.801
1473, 0.802
1474, 0.803
1475, 0.805
1476, 0.806
1477, 0.808
1478, 0.809
1479, 0.811
1480, 0.813
1481, 0.814
1482, 0.816
1483, 0.818
1484, 0.820
1485, 0.822
1486, 0.823
1487, 0.825
1488, 0.828
1489, 0.830
1490, 0.832
1491, 0.834
1492, 0.836
1493, 0.836
1494, 0.837
1495, 0.837
1496, 0.837
1497, 0.837
1498, 0.838
1499, 0.838
1500, 0.838
1501, 0.838
1502, 0.838
1503, 0.838
1504, 0.838
1505, 0.838
1506, 0.838
1507, 0.838
1508, 0.838
1509, 0.838
1510, 0.838
1511, 0.838
1512, 0.838
1513, 0.838
1514, 0.838
1515, 0.838
1516, 0.838
1517, 0.838
1518, 0.838
1519, 0.838
1520, 0.838
1521, 0.837
1522, 0.837
1523, 0.837
1524, 0.836
1525, 0.836
1526, 0.836
1527, 0.835
1528, 0.834
1529, 0.833
1530, 0.832
1531, 0.830
1532, 0.829
1533, 0.828
1534, 0.826
1535, 0.825
1536, 0.822
1537, 0.819
1538, 0.816
1539, 0.813
1540, 0.808
1541, 0.803
1542, 0.797
1543, 0.790
1544, 0.783
1545, 0.776
1546, 0.768
1547, 0.760
1548, 0.751
1549, 0.739
1550, 0.719
1551, 0.693
1552, 0.630
1553, 0.596
1554, 0.562
1555, 0.528
1556, 0.493
1557, 0.460
1558, 0.425
1559, 0.391
1560, 0.357
1561, 0.323
1562, 0.290
1563, 0.291
1564, 0.302
1565, 0.305
1566, 0.296
1567, 0.270
1568, 0.243
1569, 0.225
1570, 0.348
1571, 0.348
1572, 0.304
1573, 0.240
1574, 0.176
1575, 0.162
1576, 0.163
1577, 0.163
1578, 0.163
1579, 0.163
1580, 0.163
1581, 0.155
1582, 0.146
1583, 0.137
1584, 0.130
1585, 0.130
1586, 0.132
1587, 0.130
1588, 0.132
1589, 0.135
1590, 0.140
1591, 0.152
1592, 0.163
1593, 0.189
1594, 0.214
1595, 0.214
1596, 0.212
1597, 0.172
1598, 0.146
1599, 0.120
1600, 0.107
1601, 0.110
1602, 0.108
1603, 0.130
1604, 0.158
1605, 0.187
1606, 0.216
1607, 0.245
1608, 0.273
1609, 0.302
1610, 0.331
1611, 0.360
1612, 0.388
1613, 0.417
1614, 0.446
1615, 0.475
1616, 0.503
1617, 0.532
1618, 0.561
1619, 0.590
1620, 0.618
1621, 0.647
1622, 0.676
1623, 0.702
1624, 0.724
1625, 0.736
1626, 0.761
1627, 0.774
1628, 0.785
1629, 0.796
1630, 0.806
1631, 0.814
1632, 0.821
1633, 0.826
1634, 0.830
1635, 0.832
1636, 0.834
1637, 0.835
1638, 0.836
1639, 0.836
1640, 0.837
1641, 0.841
1642, 0.837
1643, 0.837
1644, 0.835
1645, 0.834
1646, 0.833
1647, 0.832
1648, 0.830
1649, 0.829
1650, 0.827
1651, 0.826
1652, 0.826
1653, 0.824
1654, 0.826
1655, 0.827
1656, 0.828
1657, 0.829
1658, 0.830
1659, 0.829
1660, 0.828
1661, 0.827
1662, 0.827
1663, 0.825
1664, 0.827
1665, 0.829
1666, 0.831
1667, 0.833
1668, 0.835
1669, 0.836
1670, 0.837
1671, 0.838
1672, 0.839
1673, 0.839
1674, 0.840
1675, 0.840
1676, 0.839
1677, 0.839
1678, 0.838
1679, 0.838
1680, 0.837
1681, 0.835
1682, 0.834
1683, 0.832
1684, 0.830
1685, 0.829
1686, 0.827
1687, 0.826
1688, 0.824
1689, 0.822
1690, 0.820
1691, 0.818
1692, 0.816
1693, 0.813
1694, 0.811
1695, 0.808
1696, 0.805
1697, 0.802
1698, 0.799
1699, 0.796
1700, 0.793
1701, 0.790
1702, 0.786
1703, 0.783
1704, 0.779
1705, 0.776
1706, 0.771
1707, 0.766
1708, 0.759
1709, 0.756
1710, 0.755
1711, 0.753
1712, 0.757
1713, 0.760
1714, 0.764
1715, 0.765
1716, 0.765
1717, 0.765
1718, 0.764
1719, 0.763
1720, 0.761
1721, 0.750
1722, 0.738
1723, 0.736
1724, 0.736
1725, 0.736
1726, 0.737
1727, 0.739
1728, 0.748
1729, 0.769
1730, 0.779
1731, 0.785
1732, 0.788
1733, 0.792
1734, 0.795
1735, 0.798
1736, 0.801
1737, 0.803
1738, 0.805
1739, 0.807
1740, 0.809
1741, 0.811
1742, 0.813
1743, 0.814
1744, 0.816
1745, 0.817
1746, 0.818
1747, 0.820
1748, 0.821
1749, 0.822
1750, 0.824
1751, 0.825
1752, 0.826
1753, 0.827
1754, 0.827
1755, 0.828
1756, 0.829
1757, 0.829
1758, 0.830
1759, 0.831
1760, 0.831
1761, 0.832
1762, 0.833
1763, 0.833
1764, 0.834
1765, 0.834
1766, 0.835
1767, 0.836
1768, 0.836
1769, 0.836
1770, 0.837
1771, 0.837
1772, 0.837
1773, 0.837
1774, 0.838
1775, 0.838
1776, 0.838
1777, 0.838
1778, 0.839
1779, 0.839
1780, 0.839
1781, 0.840
1782, 0.840
1783, 0.840
1784, 0.840
1785, 0.840
1786, 0.841
1787, 0.841
1788, 0.841
1789, 0.841
1790, 0.841
1791, 0.841
1792, 0.841
1793, 0.841
1794, 0.842
1795, 0.842
1796, 0.842
1797, 0.842
1798, 0.842
1799, 0.842
1800, 0.842
1801, 0.842
1802, 0.842
1803, 0.842
1804, 0.842
1805, 0.842
1806, 0.842
1807, 0.842
1808, 0.842
1809, 0.842
1810, 0.842
1811, 0.842
1812, 0.842
1813, 0.842
1814, 0.842
1815, 0.842
1816, 0.842
1817, 0.842
1818, 0.842
1819, 0.842
1820, 0.841
1821, 0.841
1822, 0.841
1823, 0.841
1824, 0.841
1825, 0.841
1826, 0.840
1827, 0.840
1828, 0.840
1829, 0.840
1830, 0.840
1831, 0.840
1832, 0.839
1833, 0.839
1834, 0.839
1835, 0.839
1836, 0.839
1837, 0.839
1838, 0.839
1839, 0.839
1840, 0.839
1841, 0.839
1842, 0.839
1843, 0.839
1844, 0.839
1845, 0.839
1846, 0.839
1847, 0.839
1848, 0.839
1849, 0.839
1850, 0.839
1851, 0.839
1852, 0.839
1853, 0.839
1854, 0.839
1855, 0.839
1856, 0.839
1857, 0.839
1858, 0.839
1859, 0.839
1860, 0.839
1861, 0.839
1862, 0.839
1863, 0.839
1864, 0.839
1865, 0.839
1866, 0.839
1867, 0.839
1868, 0.839
1869, 0.838
1870, 0.838
1871, 0.838
1872, 0.838
1873, 0.838
1874, 0.838
1875, 0.838
1876, 0.838
1877, 0.838
1878, 0.838
1879, 0.838
1880, 0.838
1881, 0.838
1882, 0.839
1883, 0.839
1884, 0.839
1885, 0.839
1886, 0.839
1887, 0.840
1888, 0.840
1889, 0.840
1890, 0.840
1891, 0.840
1892, 0.841
1893, 0.841
1894, 0.841
1895, 0.841
1896, 0.842
1897, 0.842
1898, 0.842
1899, 0.842
1900, 0.843
1901, 0.843
1902, 0.843
1903, 0.844
1904, 0.844
1905, 0.844
1906, 0.844
1907, 0.845
1908, 0.844
1909, 0.844
1910, 0.844
1911, 0.844
1912, 0.844
1913, 0.843
1914, 0.843
1915, 0.843
1916, 0.843
1917, 0.843
1918, 0.842
1919, 0.842
1920, 0.842
1921, 0.842
1922, 0.842
1923, 0.842
1924, 0.842
1925, 0.842
1926, 0.842
1927, 0.842
1928, 0.842
1929, 0.842
1930, 0.842
1931, 0.842
1932, 0.842
1933, 0.842
1934, 0.842
1935, 0.842
1936, 0.842
1937, 0.842
1938, 0.842
1939, 0.842
1940, 0.842
1941, 0.842
1942, 0.842
1943, 0.842
1944, 0.842
1945, 0.842
1946, 0.842
1947, 0.843
1948, 0.843
1949, 0.843
1950, 0.843
1951, 0.843
1952, 0.843
1953, 0.843
1954, 0.843
1955, 0.842
1956, 0.842
1957, 0.841
1958, 0.842
1959, 0.842
1960, 0.842
1961, 0.841
1962, 0.841
1963, 0.841
1964, 0.841
1965, 0.841
1966, 0.840
1967, 0.840
1968, 0.840
1969, 0.840
1970, 0.839
1971, 0.839
1972, 0.839
1973, 0.839
1974, 0.839
1975, 0.839
1976, 0.839
1977, 0.839
1978, 0.839
1979, 0.839
1980, 0.839
1981, 0.839
1982, 0.839
1983, 0.839
1984, 0.839
1985, 0.839
1986, 0.839
1987, 0.839
1988, 0.839
1989, 0.839
1990, 0.839
1991, 0.839
1992, 0.839
1993, 0.839
1994, 0.839
1995, 0.839
1996, 0.839
1997, 0.839
1998, 0.839
1999, 0.839
2000, 0.839
2001, 0.839
2002, 0.839
2003, 0.839
2004, 0.839
2005, 0.839
2006, 0.839
2007, 0.839
2008, 0.839
2009, 0.839
2010, 0.839
2011, 0.839
2012, 0.839
2013, 0.839
2014, 0.839
2015, 0.839
2016, 0.839
2017, 0.839
2018, 0.839
2019, 0.839
2020, 0.839
2021, 0.839
2022, 0.839
2023, 0.839
2024, 0.839
2025, 0.839
2026, 0.839
2027, 0.839
2028, 0.839
2029, 0.839
2030, 0.839
2031, 0.839
2032, 0.839
2033, 0.839
2034, 0.839
2035, 0.839
2036, 0.839
2037, 0.839
2038, 0.839
2039, 0.839
2040, 0.839
2041, 0.839
2042, 0.839
2043, 0.839
2044, 0.839
2045, 0.839
2046, 0.839
2047, 0.838
2048, 0.838
2049, 0.838
2050, 0.838
2051, 0.838
2052, 0.838
2053, 0.838
2054, 0.838
2055, 0.838
2056, 0.838
2057, 0.838
2058, 0.838
2059, 0.838
2060, 0.838
2061, 0.838
2062, 0.838
2063, 0.838
2064, 0.838
2065, 0.838
2066, 0.838
2067, 0.838
2068, 0.838
2069, 0.838
2070, 0.838
2071, 0.838
2072, 0.838
2073, 0.838
2074, 0.838
2075, 0.838
2076, 0.838
2077, 0.838
2078, 0.838
2079, 0.838
2080, 0.838
2081, 0.838
2082, 0.838
2083, 0.837
2084, 0.837
2085, 0.837
2086, 0.837
2087, 0.837
2088, 0.837
2089, 0.837
2090, 0.837
2091, 0.837
2092, 0.838
2093, 0.838
2094, 0.838
2095, 0.838
2096, 0.838
2097, 0.838
2098, 0.838
2099, 0.838
2100, 0.838
2101, 0.838
2102, 0.838
2103, 0.838
2104, 0.838
2105, 0.838
2106, 0.838
2107, 0.838
2108, 0.838
2109, 0.838
2110, 0.838
2111, 0.838
2112, 0.838
2113, 0.838
2114, 0.838
2115, 0.838
2116, 0.838
2117, 0.837
2118, 0.837
2119, 0.837
2120, 0.837
2121, 0.837
2122, 0.837
2123, 0.837
2124, 0.836
2125, 0.836
2126, 0.836
2127, 0.836
2128, 0.836
2129, 0.836
2130, 0.836
2131, 0.835
2132, 0.835
2133, 0.835
2134, 0.835
2135, 0.834
2136, 0.834
2137, 0.834
2138, 0.834
2139, 0.833
2140, 0.833
2141, 0.833
2142, 0.833
2143, 0.832
2144, 0.832
2145, 0.832
2146, 0.832
2147, 0.831
2148, 0.831
2149, 0.831
2150, 0.830
2151, 0.831
2152, 0.831
2153, 0.831
2154, 0.831
2155, 0.831
2156, 0.831
2157, 0.831
2158, 0.832
2159, 0.832
2160, 0.832
2161, 0.832
2162, 0.832
2163, 0.832
2164, 0.832
2165, 0.833
2166, 0.833
2167, 0.833
2168, 0.833
2169, 0.834
2170, 0.834
2171, 0.834
2172, 0.834
2173, 0.835
2174, 0.835
2175, 0.835
2176, 0.836
2177, 0.836
2178, 0.836
2179, 0.837
2180, 0.837
2181, 0.838
2182, 0.838
2183, 0.839
2184, 0.839
2185, 0.839
2186, 0.840
2187, 0.840
2188, 0.840
2189, 0.841
2190, 0.841
2191, 0.841
2192, 0.842
2193, 0.842
2194, 0.842
2195, 0.842
2196, 0.842
2197, 0.843
2198, 0.843
2199, 0.843
2200, 0.843
2201, 0.843
2202, 0.843
2203, 0.843
2204, 0.843
2205, 0.843
2206, 0.843
2207, 0.842
2208, 0.842
2209, 0.842
2210, 0.842
2211, 0.842
2212, 0.842
2213, 0.842
2214, 0.842
2215, 0.842
2216, 0.842
2217, 0.842
2218, 0.841
2219, 0.841
2220, 0.841
2221, 0.841
2222, 0.841
2223, 0.841
2224, 0.841
2225, 0.841
2226, 0.841
2227, 0.841
2228, 0.841
2229, 0.840
2230, 0.840
2231, 0.840
2232, 0.840
2233, 0.840
2234, 0.840
2235, 0.840
2236, 0.840
2237, 0.840
2238, 0.840
2239, 0.840
2240, 0.840
2241, 0.839
2242, 0.839
2243, 0.839
2244, 0.839
2245, 0.839
2246, 0.839
2247, 0.839
2248, 0.839
2249, 0.839
2250, 0.839
2251, 0.839
2252, 0.839
2253, 0.839
2254, 0.839
2255, 0.838
2256, 0.838
2257, 0.838
2258, 0.838
2259, 0.838
2260, 0.838
2261, 0.838
2262, 0.838
2263, 0.838
2264, 0.838
2265, 0.838
2266, 0.838
2267, 0.838
2268, 0.838
2269, 0.838
2270, 0.837
2271, 0.837
2272, 0.837
2273, 0.837
2274, 0.837
2275, 0.837
2276, 0.837
2277, 0.837
2278, 0.837
2279, 0.837
2280, 0.837
2281, 0.837
2282, 0.837
2283, 0.837
2284, 0.837
2285, 0.836
2286, 0.836
2287, 0.836
2288, 0.836
2289, 0.836
2290, 0.836
2291, 0.836
2292, 0.836
2293, 0.836
2294, 0.836
2295, 0.836
2296, 0.836
2297, 0.836
2298, 0.836
2299, 0.836
2300, 0.836
2301, 0.836
2302, 0.836
2303, 0.836
2304, 0.836
2305, 0.836
2306, 0.836
2307, 0.836
2308, 0.836
2309, 0.836
2310, 0.836
2311, 0.835
2312, 0.835
2313, 0.835
2314, 0.835
2315, 0.835
2316, 0.835
2317, 0.835
2318, 0.835
2319, 0.835
2320, 0.835
2321, 0.835
2322, 0.835
2323, 0.836
2324, 0.836
2325, 0.836
2326, 0.837
2327, 0.837
2328, 0.838
2329, 0.838
2330, 0.838
2331, 0.839
2332, 0.839
2333, 0.839
2334, 0.839
2335, 0.839
2336, 0.839
2337, 0.839
2338, 0.839
2339, 0.839
2340, 0.839
2341, 0.839
2342, 0.838
2343, 0.838
2344, 0.838
2345, 0.838
2346, 0.838
2347, 0.838
2348, 0.837
2349, 0.837
2350, 0.837
2351, 0.837
2352, 0.837
2353, 0.836
2354, 0.836
2355, 0.836
2356, 0.836
2357, 0.835
2358, 0.835
2359, 0.835
2360, 0.835
2361, 0.834
2362, 0.834
2363, 0.834
2364, 0.834
2365, 0.834
2366, 0.833
2367, 0.833
2368, 0.833
2369, 0.833
2370, 0.833
2371, 0.833
2372, 0.833
2373, 0.832
2374, 0.832
2375, 0.832
2376, 0.832
2377, 0.832
2378, 0.832
2379, 0.832
2380, 0.832
2381, 0.832
2382, 0.833
2383, 0.833
2384, 0.834
2385, 0.834
2386, 0.835
2387, 0.836
2388, 0.836
2389, 0.837
2390, 0.838
2391, 0.838
2392, 0.839
2393, 0.839
2394, 0.840
2395, 0.840
2396, 0.841
2397, 0.841
2398, 0.841
2399, 0.842
2400, 0.842
2401, 0.842
2402, 0.843
2403, 0.843
2404, 0.843
2405, 0.843
2406, 0.843
2407, 0.843
2408, 0.843
2409, 0.843
2410, 0.843
2411, 0.843
2412, 0.843
2413, 0.842
2414, 0.842
2415, 0.841
2416, 0.841
2417, 0.841
2418, 0.841
2419, 0.840
2420, 0.840
2421, 0.839
2422, 0.839
2423, 0.838
2424, 0.838
2425, 0.837
2426, 0.837
2427, 0.836
2428, 0.836
2429, 0.835
2430, 0.835
2431, 0.834
2432, 0.834
2433, 0.834
2434, 0.835
2435, 0.835
2436, 0.836
2437, 0.836
2438, 0.837
2439, 0.837
2440, 0.838
2441, 0.838
2442, 0.839
2443, 0.839
2444, 0.840
2445, 0.840
2446, 0.841
2447, 0.841
2448, 0.842
2449, 0.842
2450, 0.843
2451, 0.843
2452, 0.843
2453, 0.844
2454, 0.844
2455, 0.845
2456, 0.845
2457, 0.845
2458, 0.846
2459, 0.846
2460, 0.846
2461, 0.846
2462, 0.847
2463, 0.847
2464, 0.847
2465, 0.847
2466, 0.848
2467, 0.848
2468, 0.848
2469, 0.848
2470, 0.849
2471, 0.849
2472, 0.849
2473, 0.849
2474, 0.850
2475, 0.850
2476, 0.850
2477, 0.850
2478, 0.851
2479, 0.851
2480, 0.851
2481, 0.851
2482, 0.851
2483, 0.851
2484, 0.852
2485, 0.852
2486, 0.852
2487, 0.852
2488, 0.852
2489, 0.853
2490, 0.853
2491, 0.853
2492, 0.853
2493, 0.853
2494, 0.853
2495, 0.853
2496, 0.853
2497, 0.853
2498, 0.854
2499, 0.854
2500, 0.854
2501, 0.854
2502, 0.854
2503, 0.854
2504, 0.854
2505, 0.854
2506, 0.854
2507, 0.854
2508, 0.854
2509, 0.854
2510, 0.854
2511, 0.854
2512, 0.854
2513, 0.854
2514, 0.854
2515, 0.854
2516, 0.854
2517, 0.854
2518, 0.854
2519, 0.854
2520, 0.854
2521, 0.854
2522, 0.854
2523, 0.854
2524, 0.854
2525, 0.854
2526, 0.854
2527, 0.854
2528, 0.854
2529, 0.854
2530, 0.854
2531, 0.854
2532, 0.853
2533, 0.853
2534, 0.853
2535, 0.853
2536, 0.853
2537, 0.853
2538, 0.853
2539, 0.853
2540, 0.853
2541, 0.853
2542, 0.853
2543, 0.853
2544, 0.853
2545, 0.853
2546, 0.853
2547, 0.853
2548, 0.852
2549, 0.852
2550, 0.852
2551, 0.852
2552, 0.852
2553, 0.852
2554, 0.851
2555, 0.851
2556, 0.851
2557, 0.851
2558, 0.851
2559, 0.851
2560, 0.850
2561, 0.850
2562, 0.850
2563, 0.850
2564, 0.850
2565, 0.850
2566, 0.849
2567, 0.849
2568, 0.849
2569, 0.849
2570, 0.849
2571, 0.849
2572, 0.849
2573, 0.849
2574, 0.849
2575, 0.849
2576, 0.849
2577, 0.849
2578, 0.850
2579, 0.850
2580, 0.850
2581, 0.850
2582, 0.851
2583, 0.851
2584, 0.852
2585, 0.852
2586, 0.853
2587, 0.853
2588, 0.853
2589, 0.854
2590, 0.854
2591, 0.854
2592, 0.854
2593, 0.855
2594, 0.855
2595, 0.855
2596, 0.856
2597, 0.856
2598, 0.856
2599, 0.856
2600, 0.856
2601, 0.856
2602, 0.856
2603, 0.856
2604, 0.856
2605, 0.856
2606, 0.856
2607, 0.855
2608, 0.855
2609, 0.855
2610, 0.855
2611, 0.855
2612, 0.855
2613, 0.855
2614, 0.855
2615, 0.855
2616, 0.855
2617, 0.855
2618, 0.855
2619, 0.855
2620, 0.855
2621, 0.855
2622, 0.855
2623, 0.855
2624, 0.855
2625, 0.855
2626, 0.855
2627, 0.854
2628, 0.854
2629, 0.854
2630, 0.854
2631, 0.854
2632, 0.854
2633, 0.854
2634, 0.854
2635, 0.854
2636, 0.854
2637, 0.854
2638, 0.854
2639, 0.854
2640, 0.854
2641, 0.854
2642, 0.854
2643, 0.854
2644, 0.854
2645, 0.854
2646, 0.854
2647, 0.854
2648, 0.854
2649, 0.854
2650, 0.854
2651, 0.854
2652, 0.854
2653, 0.854
2654, 0.854
2655, 0.854
2656, 0.854
2657, 0.854
2658, 0.854
2659, 0.854
2660, 0.854
2661, 0.854
2662, 0.854
2663, 0.854
2664, 0.854
2665, 0.854
2666, 0.854
2667, 0.854
2668, 0.854
2669, 0.854
2670, 0.854
2671, 0.854
2672, 0.854
2673, 0.853
2674, 0.853
2675, 0.853
2676, 0.853
2677, 0.853
2678, 0.853
2679, 0.853
2680, 0.853
2681, 0.853
2682, 0.853
2683, 0.853
2684, 0.853
2685, 0.853
2686, 0.853
2687, 0.853
2688, 0.853
2689, 0.852
2690, 0.852
2691, 0.852
2692, 0.852
2693, 0.852
2694, 0.852
2695, 0.852
2696, 0.852
2697, 0.852
2698, 0.852
2699, 0.852
2700, 0.852
2701, 0.852
2702, 0.852
2703, 0.852
2704, 0.852
2705, 0.851
2706, 0.851
2707, 0.851
2708, 0.851
2709, 0.851
2710, 0.851
2711, 0.851
2712, 0.851
2713, 0.851
2714, 0.851
2715, 0.851
2716, 0.851
2717, 0.851
2718, 0.851
2719, 0.851
2720, 0.851
2721, 0.851
2722, 0.851
2723, 0.851
2724, 0.851
2725, 0.850
2726, 0.850
2727, 0.850
2728, 0.850
2729, 0.850
2730, 0.850
2731, 0.850
2732, 0.850
2733, 0.850
2734, 0.850
2735, 0.850
2736, 0.850
2737, 0.850
2738, 0.850
2739, 0.850
2740, 0.850
2741, 0.850
2742, 0.850
2743, 0.850
2744, 0.850
2745, 0.850
2746, 0.850
2747, 0.850
2748, 0.850
2749, 0.850
2750, 0.850
2751, 0.850
2752, 0.851
2753, 0.851
2754, 0.851
2755, 0.851
2756, 0.851
2757, 0.851
2758, 0.851
2759, 0.851
2760, 0.852
2761, 0.852
2762, 0.852
2763, 0.852
2764, 0.852
2765, 0.852
2766, 0.852
2767, 0.852
2768, 0.852
2769, 0.853
2770, 0.853
2771, 0.853
2772, 0.853
2773, 0.853
2774, 0.854
2775, 0.854
2776, 0.854
2777, 0.854
2778, 0.854
2779, 0.855
2780, 0.855
2781, 0.855
2782, 0.855
2783, 0.855
2784, 0.856
2785, 0.856
2786, 0.856
2787, 0.856
2788, 0.856
2789, 0.856
2790, 0.856
2791, 0.857
2792, 0.857
2793, 0.857
2794, 0.857
2795, 0.857
2796, 0.857
2797, 0.857
2798, 0.857
2799, 0.857
2800, 0.857
2801, 0.857
2802, 0.856
2803, 0.856
2804, 0.856
2805, 0.856
2806, 0.856
2807, 0.855
2808, 0.855
2809, 0.855
2810, 0.854
2811, 0.854
2812, 0.854
2813, 0.853
2814, 0.853
2815, 0.853
2816, 0.852
2817, 0.852
2818, 0.852
2819, 0.851
2820, 0.851
2821, 0.850
2822, 0.850
2823, 0.850
2824, 0.850
2825, 0.849
2826, 0.849
2827, 0.848
2828, 0.848
2829, 0.847
2830, 0.847
2831, 0.847
2832, 0.846
2833, 0.846
2834, 0.845
2835, 0.845
2836, 0.844
2837, 0.844
2838, 0.843
2839, 0.842
2840, 0.841
2841, 0.839
2842, 0.838
2843, 0.835
2844, 0.832
2845, 0.829
2846, 0.827
2847, 0.823
2848, 0.820
2849, 0.817
2850, 0.814
2851, 0.809
2852, 0.805
2853, 0.801
2854, 0.797
2855, 0.791
2856, 0.786
2857, 0.780
2858, 0.775
2859, 0.771
2860, 0.768
2861, 0.764
2862, 0.760
2863, 0.757
2864, 0.754
2865, 0.751
2866, 0.748
2867, 0.745
2868, 0.742
2869, 0.739
2870, 0.735
2871, 0.730
2872, 0.726
2873, 0.723
2874, 0.720
2875, 0.719
2876, 0.719
2877, 0.719
2878, 0.720
2879, 0.720
2880, 0.721
2881, 0.726
2882, 0.730
2883, 0.736
2884, 0.742
2885, 0.748
2886, 0.754
2887, 0.758
2888, 0.763
2889, 0.766
2890, 0.769
2891, 0.773
2892, 0.776
2893, 0.780
2894, 0.785
2895, 0.788
2896, 0.791
2897, 0.792
2898, 0.794
2899, 0.795
2900, 0.796
2901, 0.796
2902, 0.797
2903, 0.797
2904, 0.797
2905, 0.797
2906, 0.796
2907, 0.796
2908, 0.796
2909, 0.795
2910, 0.795
2911, 0.794
2912, 0.793
2913, 0.791
2914, 0.789
2915, 0.786
2916, 0.784
2917, 0.780
2918, 0.777
2919, 0.773
2920, 0.769
2921, 0.766
2922, 0.762
2923, 0.758
2924, 0.754
2925, 0.750
2926, 0.747
2927, 0.743
2928, 0.739
2929, 0.734
2930, 0.730
2931, 0.726
2932, 0.722
2933, 0.699
2934, 0.676
2935, 0.674
2936, 0.673
2937, 0.675
2938, 0.674
2939, 0.682
2940, 0.686
2941, 0.690
2942, 0.693
2943, 0.693
2944, 0.693
2945, 0.693
2946, 0.693
2947, 0.693
2948, 0.693
2949, 0.694
2950, 0.695
2951, 0.696
2952, 0.697
2953, 0.698
2954, 0.697
2955, 0.699
2956, 0.700
2957, 0.700
2958, 0.700
2959, 0.699
2960, 0.698
2961, 0.695
2962, 0.691
2963, 0.684
2964, 0.678
2965, 0.672
2966, 0.665
2967, 0.665
2968, 0.664
2969, 0.665
2970, 0.666
2971, 0.674
2972, 0.681
2973, 0.688
2974, 0.695
2975, 0.702
2976, 0.709
2977, 0.712
2978, 0.716
2979, 0.723
2980, 0.729
2981, 0.736
2982, 0.743
2983, 0.749
2984, 0.755
2985, 0.760
2986, 0.766
2987, 0.787
2988, 0.808
2989, 0.818
2990, 0.828
2991, 0.832
2992, 0.837
2993, 0.840
2994, 0.842
2995, 0.843
2996, 0.844
2997, 0.845
2998, 0.846
2999, 0.847
3000, 0.848
3001, 0.848
3002, 0.849
3003, 0.849
3004, 0.850
3005, 0.850
3006, 0.850
3007, 0.850
3008, 0.851
3009, 0.851
3010, 0.851
3011, 0.851
3012, 0.851
3013, 0.851
3014, 0.851
3015, 0.851
3016, 0.850
3017, 0.851
3018, 0.851
3019, 0.851
3020, 0.851
3021, 0.851
3022, 0.851
3023, 0.851
3024, 0.851
3025, 0.851
3026, 0.851
3027, 0.850
3028, 0.850
3029, 0.850
3030, 0.849
3031, 0.849
3032, 0.849
3033, 0.848
3034, 0.848
3035, 0.847
3036, 0.846
3037, 0.846
3038, 0.846
3039, 0.845
3040, 0.845
3041, 0.845
3042, 0.845
3043, 0.845
3044, 0.845
3045, 0.845
3046, 0.846
3047, 0.845
3048, 0.845
3049, 0.845
3050, 0.845
3051, 0.844
3052, 0.843
3053, 0.843
3054, 0.842
3055, 0.841
3056, 0.841
3057, 0.840
3058, 0.839
3059, 0.837
3060, 0.835
3061, 0.832
3062, 0.830
3063, 0.825
3064, 0.821
3065, 0.816
3066, 0.810
3067, 0.802
3068, 0.794
3069, 0.770
3070, 0.745
3071, 0.730
3072, 0.714
3073, 0.670
3074, 0.626
3075, 0.589
3076, 0.552
3077, 0.516
3078, 0.479
3079, 0.442
3080, 0.406
3081, 0.369
3082, 0.240
3083, 0.296
3084, 0.259
3085, 0.258
3086, 0.256
3087, 0.297
3088, 0.339
3089, 0.367
3090, 0.396
3091, 0.330
3092, 0.264
3093, 0.316
3094, 0.400
3095, 0.417
3096, 0.467
3097, 0.399
3098, 0.332
3099, 0.269
3100, 0.207
3101, 0.215
3102, 0.223
3103, 0.355
3104, 0.488
3105, 0.640
3106, 0.793
3107, 0.807
3108, 0.821
3109, 0.825
3110, 0.830
3111, 0.833
3112, 0.835
3113, 0.838
3114, 0.840
3115, 0.842
3116, 0.844
3117, 0.846
3118, 0.848
3119, 0.849
3120, 0.850
3121, 0.851
3122, 0.852
3123, 0.853
3124, 0.855
3125, 0.856
3126, 0.857
3127, 0.857
3128, 0.858
3129, 0.858
3130, 0.859
3131, 0.859
3132, 0.859
3133, 0.859
3134, 0.859
3135, 0.859
3136, 0.859
3137, 0.859
3138, 0.859
3139, 0.859
3140, 0.859
3141, 0.859
3142, 0.859
3143, 0.859
3144, 0.860
3145, 0.860
3146, 0.860
3147, 0.860
3148, 0.860
3149, 0.860
3150, 0.860
3151, 0.860
3152, 0.861
3153, 0.861
3154, 0.861
3155, 0.861
3156, 0.861
3157, 0.861
3158, 0.861
3159, 0.862
3160, 0.862
3161, 0.862
3162, 0.862
3163, 0.862
3164, 0.862
3165, 0.862
3166, 0.863
3167, 0.863
3168, 0.863
3169, 0.863
3170, 0.863
3171, 0.863
3172, 0.863
3173, 0.864
3174, 0.864
3175, 0.864
3176, 0.864
3177, 0.864
3178, 0.864
3179, 0.864
3180, 0.864
3181, 0.865
3182, 0.865
3183, 0.865
3184, 0.865
3185, 0.865
3186, 0.865
3187, 0.866
3188, 0.866
3189, 0.866
3190, 0.866
3191, 0.866
3192, 0.866
3193, 0.867
3194, 0.867
3195, 0.867
3196, 0.867
3197, 0.867
3198, 0.867
3199, 0.868
3200, 0.868
3201, 0.868
3202, 0.868
3203, 0.868
3204, 0.868
3205, 0.869
3206, 0.869
3207, 0.869
3208, 0.869
3209, 0.869
3210, 0.869
3211, 0.869
3212, 0.869
3213, 0.869
3214, 0.870
3215, 0.870
3216, 0.870
3217, 0.870
3218, 0.870
3219, 0.869
3220, 0.869
3221, 0.869
3222, 0.869
3223, 0.869
3224, 0.869
3225, 0.869
3226, 0.869
3227, 0.869
3228, 0.869
3229, 0.868
3230, 0.868
3231, 0.868
3232, 0.868
3233, 0.868
3234, 0.867
3235, 0.867
3236, 0.867
3237, 0.867
3238, 0.867
3239, 0.866
3240, 0.866
3241, 0.866
3242, 0.866
3243, 0.866
3244, 0.866
3245, 0.866
3246, 0.866
3247, 0.866
3248, 0.866
3249, 0.865
3250, 0.865
3251, 0.865
3252, 0.865
3253, 0.865
3254, 0.865
3255, 0.865
3256, 0.865
3257, 0.865
3258, 0.865
3259, 0.865
3260, 0.865
3261, 0.865
3262, 0.866
3263, 0.866
3264, 0.866
3265, 0.866
3266, 0.866
3267, 0.866
3268, 0.866
3269, 0.866
3270, 0.866
3271, 0.867
3272, 0.867
3273, 0.867
3274, 0.867
3275, 0.867
3276, 0.867
3277, 0.867
3278, 0.867
3279, 0.868
3280, 0.868
3281, 0.868
3282, 0.868
3283, 0.869
3284, 0.869
3285, 0.869
3286, 0.869
3287, 0.870
3288, 0.870
3289, 0.870
3290, 0.870
3291, 0.870
3292, 0.871
3293, 0.871
3294, 0.871
3295, 0.871
3296, 0.871
3297, 0.871
3298, 0.872
3299, 0.872
3300, 0.872
3301, 0.872
3302, 0.872
3303, 0.872
3304, 0.872
3305, 0.872
3306, 0.873
3307, 0.873
3308, 0.873
3309, 0.873
3310, 0.873
3311, 0.873
3312, 0.873
3313, 0.873
3314, 0.873
3315, 0.873
3316, 0.873
3317, 0.873
3318, 0.873
3319, 0.873
3320, 0.873
3321, 0.873
3322, 0.873
3323, 0.873
3324, 0.873
3325, 0.873
3326, 0.873
3327, 0.873
3328, 0.873
3329, 0.873
3330, 0.873
3331, 0.873
3332, 0.873
3333, 0.873
3334, 0.873
3335, 0.873
3336, 0.873
3337, 0.873
3338, 0.873
3339, 0.873
3340, 0.873
3341, 0.873
3342, 0.873
3343, 0.873
3344, 0.873
3345, 0.873
3346, 0.873
3347, 0.873
3348, 0.873
3349, 0.873
3350, 0.873
3351, 0.873
3352, 0.873
3353, 0.873
3354, 0.873
3355, 0.873
3356, 0.873
3357, 0.873
3358, 0.873
3359, 0.872
3360, 0.872
3361, 0.872
3362, 0.872
3363, 0.872
3364, 0.872
3365, 0.872
3366, 0.872
3367, 0.872
3368, 0.872
3369, 0.872
3370, 0.872
3371, 0.872
3372, 0.872
3373, 0.872
3374, 0.872
3375, 0.872
3376, 0.872
3377, 0.872
3378, 0.873
3379, 0.873
3380, 0.873
3381, 0.873
3382, 0.873
3383, 0.873
3384, 0.873
3385, 0.873
3386, 0.873
3387, 0.873
3388, 0.873
3389, 0.873
3390, 0.873
3391, 0.873
3392, 0.873
3393, 0.873
3394, 0.873
3395, 0.873
3396, 0.873
3397, 0.873
3398, 0.873
3399, 0.873
3400, 0.873
3401, 0.873
3402, 0.873
3403, 0.873
3404, 0.873
3405, 0.873
3406, 0.873
3407, 0.873
3408, 0.873
3409, 0.873
3410, 0.874
3411, 0.874
3412, 0.874
3413, 0.874
3414, 0.874
3415, 0.874
3416, 0.874
3417, 0.874
3418, 0.874
3419, 0.874
3420, 0.874
3421, 0.874
3422, 0.874
3423, 0.874
3424, 0.874
3425, 0.874
3426, 0.874
3427, 0.874
3428, 0.874
3429, 0.874
3430, 0.874
3431, 0.874
3432, 0.874
3433, 0.874
3434, 0.874
3435, 0.874
3436, 0.875
3437, 0.875
3438, 0.875
3439, 0.875
3440, 0.875
3441, 0.875
3442, 0.875
3443, 0.875
3444, 0.875
3445, 0.875
3446, 0.875
3447, 0.875
3448, 0.875
3449, 0.875
3450, 0.875
3451, 0.875
3452, 0.875
3453, 0.875
3454, 0.875
3455, 0.875
3456, 0.875
3457, 0.875
3458, 0.875
3459, 0.875
3460, 0.875
3461, 0.875
3462, 0.875
3463, 0.875
3464, 0.875
3465, 0.875
3466, 0.875
3467, 0.875
3468, 0.875
3469, 0.875
3470, 0.875
3471, 0.875
3472, 0.875
3473, 0.875
3474, 0.875
3475, 0.875
3476, 0.875
3477, 0.875
3478, 0.875
3479, 0.875
3480, 0.875
3481, 0.875
3482, 0.875
3483, 0.875
3484, 0.875
3485, 0.875
3486, 0.875
3487, 0.875
3488, 0.875
3489, 0.875
3490, 0.875
3491, 0.875
3492, 0.875
3493, 0.875
3494, 0.875
3495, 0.875
3496, 0.875
3497, 0.875
3498, 0.875
3499, 0.875
3500, 0.875
3501, 0.875
3502, 0.875
3503, 0.875
3504, 0.875
3505, 0.875
3506, 0.875
3507, 0.875
3508, 0.875
3509, 0.875
3510, 0.875
3511, 0.875
3512, 0.875
3513, 0.874
3514, 0.874
3515, 0.874
3516, 0.874
3517, 0.874
3518, 0.875
3519, 0.875
3520, 0.875
3521, 0.875
3522, 0.875
3523, 0.875
3524, 0.875
3525, 0.875
3526, 0.875
3527, 0.875
3528, 0.875
3529, 0.875
3530, 0.875
3531, 0.875
3532, 0.875
3533, 0.875
3534, 0.875
3535, 0.875
3536, 0.875
3537, 0.875
3538, 0.875
3539, 0.875
3540, 0.875
3541, 0.875
3542, 0.875
3543, 0.875
3544, 0.876
3545, 0.876
3546, 0.876
3547, 0.876
3548, 0.876
3549, 0.876
3550, 0.876
3551, 0.876
3552, 0.876
3553, 0.876
3554, 0.876
3555, 0.876
3556, 0.876
3557, 0.876
3558, 0.876
3559, 0.876
3560, 0.876
3561, 0.876
3562, 0.876
3563, 0.876
3564, 0.876
3565, 0.876
3566, 0.876
3567, 0.876
3568, 0.876
3569, 0.876
3570, 0.876
3571, 0.876
3572, 0.876
3573, 0.876
3574, 0.876
3575, 0.876
3576, 0.876
3577, 0.876
3578, 0.876
3579, 0.876
3580, 0.877
3581, 0.877
3582, 0.877
3583, 0.877
3584, 0.877
3585, 0.877
3586, 0.877
3587, 0.877
3588, 0.877
3589, 0.877
3590, 0.876
3591, 0.876
3592, 0.876
3593, 0.876
3594, 0.876
3595, 0.876
3596, 0.876
3597, 0.876
3598, 0.876
3599, 0.876
3600, 0.875
3601, 0.875
3602, 0.875
3603, 0.875
3604, 0.875
3605, 0.875
3606, 0.875
3607, 0.875
3608, 0.875
3609, 0.875
3610, 0.875
3611, 0.874
3612, 0.874
3613, 0.874
3614, 0.874
3615, 0.873
3616, 0.873
3617, 0.873
3618, 0.873
3619, 0.872
3620, 0.872
3621, 0.871
3622, 0.871
3623, 0.871
3624, 0.870
3625, 0.870
3626, 0.869
3627, 0.869
3628, 0.868
3629, 0.868
3630, 0.867
3631, 0.867
3632, 0.866
3633, 0.865
3634, 0.865
3635, 0.864
3636, 0.863
3637, 0.863
3638, 0.862
3639, 0.861
3640, 0.861
3641, 0.860
3642, 0.859
3643, 0.858
3644, 0.858
3645, 0.857
3646, 0.857
3647, 0.857
3648, 0.857
3649, 0.856
3650, 0.856
3651, 0.856
3652, 0.856
3653, 0.856
3654, 0.856
3655, 0.856
3656, 0.856
3657, 0.856
3658, 0.856
3659, 0.856
3660, 0.857
3661, 0.858
3662, 0.858
3663, 0.859
3664, 0.861
3665, 0.862
3666, 0.864
3667, 0.865
3668, 0.866
3669, 0.867
3670, 0.868
3671, 0.869
3672, 0.870
3673, 0.870
3674, 0.871
3675, 0.872
3676, 0.872
3677, 0.873
3678, 0.873
3679, 0.874
3680, 0.874
3681, 0.874
3682, 0.875
3683, 0.875
3684, 0.875
3685, 0.875
3686, 0.876
3687, 0.876
3688, 0.876
3689, 0.876
3690, 0.876
3691, 0.876
3692, 0.876
3693, 0.876
3694, 0.877
3695, 0.877
3696, 0.877
3697, 0.877
3698, 0.877
3699, 0.877
3700, 0.877
3701, 0.877
3702, 0.877
3703, 0.877
3704, 0.877
3705, 0.876
3706, 0.876
3707, 0.876
3708, 0.876
3709, 0.876
3710, 0.876
3711, 0.876
3712, 0.876
3713, 0.876
3714, 0.876
3715, 0.876
3716, 0.876
3717, 0.875
3718, 0.875
3719, 0.875
3720, 0.875
3721, 0.875
3722, 0.875
3723, 0.874
3724, 0.874
3725, 0.874
3726, 0.874
3727, 0.874
3728, 0.874
3729, 0.873
3730, 0.873
3731, 0.873
3732, 0.873
3733, 0.872
3734, 0.872
3735, 0.872
3736, 0.871
3737, 0.871
3738, 0.871
3739, 0.870
3740, 0.870
3741, 0.870
3742, 0.870
3743, 0.870
3744, 0.870
3745, 0.870
3746, 0.870
3747, 0.870
3748, 0.871
3749, 0.871
3750, 0.871
3751, 0.871
3752, 0.872
3753, 0.872
3754, 0.872
3755, 0.873
3756, 0.873
3757, 0.873
3758, 0.873
3759, 0.874
3760, 0.874
3761, 0.874
3762, 0.875
3763, 0.875
3764, 0.875
3765, 0.875
3766, 0.875
3767, 0.875
3768, 0.875
3769, 0.875
3770, 0.875
3771, 0.875
3772, 0.875
3773, 0.875
3774, 0.875
3775, 0.875
3776, 0.875
3777, 0.875
3778, 0.875
3779, 0.874
3780, 0.874
3781, 0.874
3782, 0.874
3783, 0.874
3784, 0.874
3785, 0.874
3786, 0.873
3787, 0.873
3788, 0.873
3789, 0.873
3790, 0.873
3791, 0.872
3792, 0.872
3793, 0.871
3794, 0.871
3795, 0.870
3796, 0.870
3797, 0.869
3798, 0.869
3799, 0.869
3800, 0.869
